LabVIEW Measurement	
Writer_Version	2
Reader_Version	2
Separator	Tab
Decimal_Separator	,
Multi_Headings	No
X_Columns	No
Time_Pref	Absolute
Operator	wiver14
Date	2023/09/19
Time	10:20:54,7853994833530154823
***End_of_Header***	
	
Channels	1	
Samples	10	
Date	2023/09/19	
Time	10:20:54,7853994833530154823	
Y_Unit_Label	Volts	
X_Dimension	Time	
X0	0,0000000000000000E+0	
Delta_X	0,100000	
***End_of_Header***		
X_Value	Tension	Comment
	-0,043005
	-0,042495
	-0,041986
	-0,042495
	-0,040968
	-0,041986
	-0,039949
	-0,039949
	-0,039949
	-0,038422
	-0,038931
	-0,038931
	-0,037403
	-0,037403
	-0,036894
	-0,036385
	-0,035875
	-0,036894
	-0,035366
	-0,035875
	-0,034857
	-0,034857
	-0,034348
	-0,033838
	-0,033329
	-0,033329
	-0,033838
	-0,032820
	-0,032820
	-0,031801
	-0,031801
	-0,031292
	-0,031292
	-0,030783
	-0,031292
	-0,030783
	-0,030274
	-0,029255
	-0,030274
	-0,029255
	-0,028746
	-0,028746
	-0,029255
	-0,028237
	-0,028237
	-0,028237
	-0,028237
	-0,027218
	-0,027218
	-0,026709
	-0,027218
	-0,026200
	-0,026709
	-0,026200
	-0,025690
	-0,025690
	-0,025690
	-0,024672
	-0,025181
	-0,025181
	-0,024672
	-0,025690
	-0,024672
	-0,024163
	-0,023653
	-0,024163
	-0,023653
	-0,023653
	-0,023144
	-0,023653
	-0,022635
	-0,023144
	-0,022635
	-0,022635
	-0,022126
	-0,022126
	-0,021107
	-0,021616
	-0,021107
	-0,021107
	-0,021616
	-0,021616
	-0,020598
	-0,020598
	-0,020598
	-0,019579
	-0,020598
	-0,020089
	-0,019579
	-0,019579
	-0,019579
	-0,019070
	-0,019070
	-0,019070
	-0,018561
	-0,019070
	-0,019070
	-0,018561
	-0,018561
	-0,018561
	-0,019070
	-0,018052
	-0,018052
	-0,017542
	-0,017542
	-0,017542
	-0,017542
	-0,017542
	-0,017542
	-0,017542
	-0,017542
	-0,017542
	-0,016524
	-0,017033
	-0,017033
	-0,017033
	-0,017033
	-0,016524
	-0,017033
	-0,017542
	-0,017033
	-0,017033
	-0,016524
	-0,017033
	-0,017033
	-0,017033
	-0,016015
	-0,016524
	-0,016015
	-0,016524
	-0,016524
	-0,016015
	-0,016015
	-0,016015
	-0,015505
	-0,015505
	-0,016015
	-0,015505
	-0,014996
	-0,015505
	-0,015505
	-0,014996
	-0,014487
	-0,014487
	-0,014996
	-0,014487
	-0,014996
	-0,013978
	-0,014487
	-0,014996
	-0,013978
	-0,013978
	-0,013978
	-0,013978
	-0,013978
	-0,013468
	-0,013468
	-0,013978
	-0,013468
	-0,013468
	-0,013468
	-0,013468
	-0,013978
	-0,012959
	-0,013978
	-0,012959
	-0,013468
	-0,013978
	-0,012959
	-0,012959
	-0,012450
	-0,012450
	-0,012450
	-0,012959
	-0,012450
	-0,012450
	-0,012450
	-0,012959
	-0,013468
	-0,012450
	-0,012959
	-0,012959
	-0,012450
	-0,012450
	-0,012450
	-0,013468
	-0,012959
	-0,012450
	-0,013468
	-0,012959
	-0,012959
	-0,012959
	-0,012959
	-0,012959
	-0,012959
	-0,012450
	-0,013468
	-0,012959
	-0,012959
	-0,013468
	-0,012959
	-0,012959
	-0,012450
	-0,012959
	-0,012959
	-0,012959
	-0,013468
	-0,012959
	-0,012959
	-0,012959
	-0,013468
	-0,013468
	-0,012959
	-0,012450
	-0,013978
	-0,012959
	-0,013468
	-0,012959
	-0,012959
	-0,013468
	-0,012959
	-0,012959
	-0,012959
	-0,012959
	-0,013468
	-0,012450
	-0,012450
	-0,012450
	-0,012959
	-0,013468
	-0,011941
	-0,012450
	-0,012450
	-0,012450
	-0,012450
	-0,013468
	-0,013468
	-0,012450
	-0,012450
	-0,012450
	-0,013468
	-0,011941
	-0,012959
	-0,011941
	-0,012450
	-0,012450
	-0,012959
	-0,012450
	-0,012450
	-0,012450
	-0,012450
	-0,012450
	-0,013468
	-0,012450
	-0,012959
	-0,012959
	-0,012450
	-0,012450
	-0,012450
	-0,012959
	-0,011941
	-0,011941
	-0,011941
	-0,011941
	-0,011431
	-0,012959
	-0,011941
	-0,012450
	-0,012450
	-0,012450
	-0,012450
	-0,012959
	-0,011431
	-0,011941
	-0,012450
	-0,011941
	-0,011941
	-0,013468
	-0,011431
	-0,011941
	-0,012450
	-0,011941
	-0,012450
	-0,012450
	-0,012450
	-0,012450
	-0,011941
	-0,011941
	-0,011431
	-0,011941
	-0,012450
	-0,012450
	-0,011941
	-0,012450
	-0,011941
	-0,012450
	-0,011941
	-0,011941
	-0,011941
	-0,011941
	-0,011431
	-0,011941
	-0,011941
	-0,011941
	-0,012450
	-0,011431
	-0,011431
	-0,011941
	-0,011941
	-0,011941
	-0,011431
	-0,012450
	-0,011941
	-0,011941
	-0,011941
	-0,012450
	-0,011941
	-0,011941
	-0,012450
	-0,011431
	-0,011431
	-0,012450
	-0,011431
	-0,011941
	-0,011431
	-0,011431
	-0,011431
	-0,011941
	-0,011431
	-0,011431
	-0,011941
	-0,011431
	-0,010922
	-0,011431
	-0,011431
	-0,011941
	-0,011431
	-0,011431
	-0,010922
	-0,011431
	-0,011941
	-0,011431
	-0,010922
	-0,011431
	-0,011941
	-0,011431
	-0,010922
	-0,011941
	-0,011941
	-0,011431
	-0,011431
	-0,010922
	-0,011941
	-0,011431
	-0,011431
	-0,010922
	-0,010922
	-0,010922
	-0,010922
	-0,011431
	-0,010413
	-0,010922
	-0,010922
	-0,010413
	-0,011431
	-0,011431
	-0,010922
	-0,011431
	-0,011431
	-0,010922
	-0,010922
	-0,011431
	-0,011431
	-0,011431
	-0,010413
	-0,010922
	-0,011431
	-0,010922
	-0,011431
	-0,011431
	-0,010922
	-0,010922
	-0,010922
	-0,011431
	-0,010922
	-0,011431
	-0,011431
	-0,010922
	-0,011431
	-0,010413
	-0,010922
	-0,010922
	-0,010922
	-0,011431
	-0,010413
	-0,010922
	-0,010922
	-0,010413
	-0,010922
	-0,011431
	-0,010922
	-0,009904
	-0,010413
	-0,011431
	-0,010922
	-0,010413
	-0,011431
	-0,010922
	-0,010922
	-0,010413
	-0,010413
	-0,011941
	-0,011431
	-0,010922
	-0,010922
	-0,010922
	-0,010922
	-0,010922
	-0,010922
	-0,010922
	-0,011431
	-0,010922
	-0,010413
	-0,010922
	-0,010413
	-0,010922
	-0,010413
	-0,010413
	-0,010922
	-0,010922
	-0,010413
	-0,009904
	-0,009904
	-0,009904
	-0,010413
	-0,008885
	-0,009904
	-0,009904
	-0,010413
	-0,008885
	-0,009904
	-0,009394
	-0,009394
	-0,009904
	-0,009394
	-0,009394
	-0,008885
	-0,009394
	-0,009904
	-0,010413
	-0,009394
	-0,008885
	-0,009394
	-0,009394
	-0,009394
	-0,008376
	-0,008885
	-0,008376
	-0,008376
	-0,009904
	-0,009394
	-0,009394
	-0,008376
	-0,008885
	-0,009394
	-0,009394
	-0,009394
	-0,009394
	-0,008885
	-0,008885
	-0,008376
	-0,008885
	-0,008376
	-0,008376
	-0,008376
	-0,008376
	-0,008376
	-0,008376
	-0,008376
	-0,007867
	-0,007358
	-0,008376
	-0,008376
	-0,008885
	-0,008885
	-0,008376
	-0,007358
	-0,007867
	-0,008376
	-0,007867
	-0,007867
	-0,007867
	-0,008376
	-0,007867
	-0,007867
	-0,008376
	-0,008376
	-0,007867
	-0,008376
	-0,007867
	-0,007867
	-0,007867
	-0,007867
	-0,008376
	-0,007867
	-0,008376
	-0,008376
	-0,007867
	-0,008376
	-0,008376
